1895.16      
4.
61     0.0
        P(bar)         T(K)
  1    0.000001000   1136.05 1.9517E+05  0.0000  0.0000 2.4953E-11    8.92172E-01
  2    0.000001410   1137.95 2.3370E+05  0.2850  0.0049 3.5124E-11    1.25201E+00
  3    0.000002000   1145.68 2.8083E+05  0.2848  0.0194 4.9485E-11    1.74201E+00
  4    0.000002820   1156.53 3.3994E+05  0.2845  0.0274 6.9120E-11    2.39120E+00
  5    0.000003980   1169.06 4.1535E+05  0.2840  0.0313 9.6508E-11    3.27282E+00
  6    0.000005620   1182.77 5.1186E+05  0.2835  0.0338 1.3470E-10    4.47060E+00
  7    0.000007940   1197.54 6.3731E+05  0.2830  0.0359 1.8796E-10    6.09691E+00
  8    0.000011220   1213.45 8.0641E+05  0.2824  0.0382 2.6214E-10    8.29790E+00
  9    0.000015850   1230.53 1.0373E+06  0.2819  0.0405 3.6519E-10    1.12648E+01
 10    0.000022390   1248.01 1.3471E+06  0.2813  0.0408 5.0870E-10    1.52866E+01
 11    0.000031620   1264.83 1.7511E+06  0.2807  0.0388 7.0892E-10    2.07868E+01
 12    0.000044670   1280.20 2.2602E+06  0.2800  0.0350 9.8952E-10    2.83927E+01
 13    0.000063100   1294.93 2.8917E+06  0.2793  0.0331 1.3819E-09    3.88481E+01
 14    0.000089120   1310.96 3.7025E+06  0.2786  0.0356 1.9279E-09    5.30170E+01
 15    0.000125890   1328.29 4.7814E+06  0.2779  0.0380 2.6878E-09    7.21979E+01
 16    0.000177830   1346.42 6.2266E+06  0.2771  0.0392 3.7461E-09    9.82022E+01
 17    0.000251190   1365.23 8.1428E+06  0.2763  0.0402 5.2198E-09    1.33449E+02
 18    0.000354810   1385.30 1.0601E+07  0.2755  0.0423 7.2684E-09    1.80981E+02
 19    0.000501190   1407.85 1.3648E+07  0.2746  0.0467 1.0103E-08    2.44392E+02
 20    0.000707950   1432.80 1.7458E+07  0.2734  0.0509 1.4020E-08    3.29718E+02
 21    0.001000000   1459.78 2.2378E+07  0.2714  0.0540 1.9440E-08    4.43910E+02
 22    0.001412500   1488.48 2.8851E+07  0.2694  0.0564 2.6939E-08    5.96382E+02
 23    0.001995300   1518.38 3.7068E+07  0.2673  0.0576 3.7311E-08    8.00425E+02
 24    0.002818400   1548.34 4.7098E+07  0.2652  0.0566 5.1680E-08    1.07517E+03
 25    0.003981100   1581.25 5.9418E+07  0.2630  0.0609 7.1476E-08    1.43871E+03
 26    0.005623400   1620.63 7.5050E+07  0.2590  0.0712 9.8501E-08    1.94332E+03
 27    0.007943300   1666.49 9.5106E+07  0.2518  0.0808 1.3529E-07    2.61489E+03
 28    0.011220000   1716.78 1.2037E+08  0.2440  0.0861 1.8546E-07    3.48734E+03
 29    0.015849000   1772.93 1.5152E+08  0.2389  0.0932 2.5359E-07    4.54907E+03
 30    0.022387000   1836.32 1.8950E+08  0.2314  0.1017 3.4563E-07    6.18983E+03
 31    0.031623000   1906.04 2.3533E+08  0.2199  0.1079 4.7016E-07    8.29634E+03
 32    0.044668000   1980.83 2.8964E+08  0.2101  0.1114 6.3820E-07    1.09118E+04
 33    0.063096000   2058.36 3.5276E+08  0.2002  0.1112 8.6345E-07    1.51108E+04
 34    0.089125000   2135.11 4.2540E+08  0.1878  0.1060 1.1725E-06    2.07670E+04
 35    0.125890000   2205.65 5.0740E+08  0.1783  0.0941 1.6021E-06    2.78912E+04
 36    0.177830000   2263.58 5.9074E+08  0.1727  0.0751 2.2066E-06    3.77052E+04
 37    0.251190010   2304.77 6.5894E+08  0.1708  0.0522 3.0646E-06    5.12552E+04
 38    0.354810000   2332.34 7.0151E+08  0.1717  0.0344 4.2707E-06    6.88722E+04
 39    0.501190010   2351.65 7.2183E+08  0.1748  0.0239 5.9806E-06    9.20113E+04
 40    0.707950000   2363.13 7.2884E+08  0.1793  0.0141 8.4157E-06    1.22735E+05
 41    1.000000000   2368.62 7.3026E+08  0.1849  0.0067 1.1884E-05    1.64065E+05
 42    1.412500020   2372.82 7.3039E+08  0.1909  0.0051 1.6770E-05    2.20735E+05
 43    1.995300050   2379.10 7.3040E+08  0.1965  0.0076 2.3649E-05    2.97951E+05
 44    2.818399910   2389.55 7.3040E+08  0.2013  0.0127 3.3294E-05    4.02802E+05
 45    3.981100080   2407.05 7.3040E+08  0.2050  0.0211 4.6702E-05    5.43967E+05
 46    5.623400210   2436.55 7.3040E+08  0.2074  0.0353 6.5179E-05    7.31844E+05
 47    7.943299770   2486.28 7.3040E+08  0.2082  0.0585 9.0247E-05    9.71461E+05
 48   10.000000000   2537.50 7.3040E+08  0.2073  0.0886 1.1136E-04    1.16917E+06
 49   15.848999980   2714.20 7.3061E+08  0.1986  0.1462 1.6405E-04    1.66774E+06
 50   22.386999130   2903.72 7.3090E+08  0.1857  0.1954 2.1575E-04    2.14994E+06
 51   31.622999190   3092.72 7.3107E+08  0.1734  0.1826 2.8377E-04    2.79717E+06
 52   44.667999270   3281.18 7.3115E+08  0.1634  0.1713 3.7365E-04    3.64767E+06
 53   63.096000670   3471.69 7.3120E+08  0.1568  0.1634 4.9805E-04    4.72665E+06
 54   89.125000000   3665.06 7.3122E+08  0.1511  0.1569 6.5640E-04    6.09773E+06
 55  125.889999390   3864.33 7.3123E+08  0.1490  0.1533 8.7233E-04    7.81052E+06
 56  177.830001830   4070.90 7.3124E+08  0.1464  0.1508 1.1700E-03    9.32215E+06
 57  251.190002440   4289.90 7.3124E+08  0.1517  0.1517 1.5840E-03    1.03176E+07
 58  354.809997560   4529.93 7.3124E+08  0.1576  0.1576 2.1597E-03    1.14540E+07
 59  501.190002440   4793.16 7.3125E+08  0.1635  0.1635 2.9653E-03    1.27162E+07
 60  707.950012210   5081.76 7.3125E+08  0.1693  0.1693 4.0983E-03    1.41190E+07
 61 1000.000000000   5397.97 7.3125E+08  0.1748  0.1748 5.6999E-03    1.56807E+07

