2000
1000e2
53
       P(bar)     T(K)             ch4          h2o       nh3
  1    0.0005    846.78   0.2912 0.7766E-06 0.6372E-03 0.7250E-08 0.5844E-03
  2    0.0011    876.81   0.2906 0.1087E-05 0.6550E-03 0.1167E-07 0.5650E-03
  3    0.0022    917.99   0.2895 0.1199E-05 0.6580E-03 0.1749E-07 0.5628E-03
  4    0.0050    966.09   0.2882 0.1330E-05 0.6527E-03 0.2729E-07 0.5350E-03
  5    0.0088   1002.24   0.2870 0.1692E-05 0.6321E-03 0.3710E-07 0.5954E-03
  6    0.0128   1029.20   0.2861 0.1758E-05 0.6334E-03 0.4537E-07 0.5944E-03
  7    0.0211   1068.33   0.2848 0.1804E-05 0.6338E-03 0.5875E-07 0.5944E-03
  8    0.0407   1127.10   0.2830 0.1732E-05 0.6407E-03 0.8161E-07 0.5860E-03
  9    0.0601   1170.62   0.2813 0.1558E-05 0.6370E-03 0.9650E-07 0.5905E-03
 10    0.0840   1215.74   0.2797 0.1329E-05 0.6273E-03 0.1089E-06 0.6031E-03
 11    0.1007   1244.58   0.2788 0.1133E-05 0.6275E-03 0.1148E-06 0.6031E-03
 12    0.1548   1322.77   0.2758 0.7274E-06 0.6294E-03 0.1283E-06 0.6013E-03
 13    0.1987   1377.50   0.2738 0.5302E-06 0.6276E-03 0.1345E-06 0.6031E-03
 14    0.3272   1508.43   0.2686 0.2496E-06 0.6480E-03 0.1453E-06 0.6045E-03
 15    0.4198   1601.41   0.2647 0.1407E-06 0.6624E-03 0.1441E-06 0.6051E-03
 16    0.5387   1710.67   0.2587 0.7260E-07 0.7125E-03 0.1419E-06 0.6055E-03
 17    0.6913   1824.68   0.2511 0.4180E-07 0.7533E-03 0.1430E-06 0.6058E-03
 18    0.8871   1942.59   0.2417 0.2767E-07 0.7585E-03 0.1474E-06 0.6058E-03
 19    1.1383   2063.26   0.2281 0.2004E-07 0.7612E-03 0.1553E-06 0.6063E-03
 20    1.4607   2184.03   0.2143 0.1593E-07 0.7622E-03 0.1673E-06 0.6069E-03
 21    1.8744   2303.90   0.1972 0.1373E-07 0.7634E-03 0.1838E-06 0.6073E-03
 22    2.4052   2420.03   0.1809 0.1278E-07 0.7643E-03 0.2056E-06 0.6092E-03
 23    3.0864   2531.71   0.1681 0.1281E-07 0.7650E-03 0.2341E-06 0.6105E-03
 24    3.9605   2640.07   0.1525 0.1350E-07 0.7654E-03 0.2695E-06 0.6129E-03
 25    5.0822   2742.38   0.1418 0.1498E-07 0.7655E-03 0.3137E-06 0.6164E-03
 26    6.5215   2841.12   0.1339 0.1741E-07 0.7656E-03 0.3700E-06 0.6185E-03
 27    8.4685   2942.27   0.1245 0.2119E-07 0.7657E-03 0.4446E-06 0.6194E-03
 28   10.0000   3003.77   0.1203 0.2455E-07 0.7656E-03 0.5025E-06 0.6196E-03
 29   11.7000   3061.06   0.1169 0.2802E-07 0.7636E-03 0.5599E-06 0.6236E-03
 30   13.6800   3117.52   0.1144 0.3233E-07 0.7620E-03 0.6261E-06 0.6268E-03
 31   15.6633   3166.16   0.1127 0.3689E-07 0.7611E-03 0.6917E-06 0.6288E-03
 32   19.6827   3248.70   0.1085 0.4669E-07 0.7603E-03 0.8225E-06 0.6312E-03
 33   23.6907   3314.71   0.1062 0.5737E-07 0.7604E-03 0.9517E-06 0.6319E-03
 34   28.1170   3375.55   0.1044 0.7008E-07 0.7609E-03 0.1093E-05 0.6318E-03
 35   34.0000   3443.14   0.1028 0.8780E-07 0.7616E-03 0.1274E-05 0.6318E-03
 36   41.0000   3510.05   0.1018 0.1099E-06 0.7615E-03 0.1480E-05 0.6325E-03
 37   49.3634   3577.01   0.1007 0.1366E-06 0.7570E-03 0.1703E-05 0.6365E-03
 38   58.0452   3635.84   0.0999 0.1663E-06 0.7546E-03 0.1933E-05 0.6389E-03
 39   69.5241   3701.96   0.0991 0.2085E-06 0.7535E-03 0.2235E-05 0.6404E-03
 40   80.0000   3753.81   0.0986 0.2500E-06 0.7538E-03 0.2508E-05 0.6408E-03
 41   91.9486   3805.71   0.0984 0.3004E-06 0.7549E-03 0.2819E-05 0.6405E-03
 42  102.0000   3844.77   0.0983 0.3449E-06 0.7563E-03 0.3077E-05 0.6399E-03
 43  113.3080   3884.73   0.0982 0.3951E-06 0.7574E-03 0.3351E-05 0.6394E-03
 44  125.0000   3922.37   0.0981 0.4494E-06 0.7586E-03 0.3633E-05 0.6388E-03
 45  145.0000   3979.92   0.0983 0.5473E-06 0.7607E-03 0.4108E-05 0.6377E-03
 46  165.0000   4030.80   0.1017 0.6514E-06 0.7629E-03 0.4578E-05 0.6364E-03
 47  185.0000   4077.98   0.1047 0.7593E-06 0.7650E-03 0.5040E-05 0.6351E-03
 48  205.0000   4122.04   0.1074 0.8709E-06 0.7670E-03 0.5495E-05 0.6339E-03
 49  225.0000   4163.47   0.1100 0.9859E-06 0.7690E-03 0.5944E-05 0.6327E-03
 50  250.0000   4212.00   0.1130 0.1134E-05 0.7714E-03 0.6499E-05 0.6312E-03
 51  265.0000   4239.82   0.1145 0.1225E-05 0.7727E-03 0.6828E-05 0.6303E-03
 52  280.0000   4266.62   0.1159 0.1318E-05 0.7741E-03 0.7155E-05 0.6294E-03
 53  300.0000   4300.88   0.0000 0.1444E-05 0.7759E-03 0.7587E-05 0.6283E-03
